   Wavenu Wavelen  kap100   kap198   kap296 del/al
    1/cm    nm     1/km-am  1/km-am  1/km-am K^1/2

    1800  5554.04  8.15E-2  2.06E+0  2.27E+1  1118
    1805  5538.66  6.81E-2  1.54E+0  1.82E+1  1099
    1810  5523.36  1.28E-1  9.21E-1  9.30E+0   424
    1815  5508.14  5.32E-2  1.26E+0  1.63E+1   756
    1820  5493.01  5.62E-2  1.17E+0  1.49E+1  1061
    1825  5477.96  7.40E-2  8.92E-1  1.05E+1   824
    1830  5462.99  6.03E-2  9.26E-1  1.16E+1   905
    1835  5448.11  6.56E-2  1.48E+0  1.76E+1  1757
    1840  5433.30  5.51E-2  1.44E+0  1.82E+1  1546
    1845  5418.58  4.91E-2  7.07E-1  8.86E+0   931
    1850  5403.93  4.12E-2  8.79E-1  1.15E+1  1484
    1855  5389.37  2.82E-2  8.44E-1  1.32E+1  1253
    1860  5374.88  4.41E-2  4.53E-1  5.62E+0   982
    1865  5360.47  3.37E-2  5.81E-1  8.00E+0  1913
    1870  5346.14  1.97E-2  5.73E-1  9.91E+0  1442
    1875  5331.88  3.54E-2  3.14E-1  3.99E+0   877
    1880  5317.70  1.91E-2  4.43E-1  7.06E+0  2002
    1885  5303.59  1.34E-2  4.42E-1  8.53E+0  1824
    1890  5289.56  3.52E-2  2.32E-1  2.98E+0   722
    1895  5275.61  1.51E-2  2.90E-1  4.74E+0  1489
    1900  5261.72  1.40E-2  3.04E-1  5.64E+0  2628
    1905  5247.91  4.60E-2  1.63E-1  1.84E+0  1192
    1910  5234.18  3.12E-2  1.77E-1  2.20E+0  1205
    1915  5220.51  1.79E-2  2.16E-1  3.50E+0  2630
    1920  5206.91  3.55E-2  1.81E-1  2.14E+0  4133
    1925  5193.39  4.41E-2  1.11E-1  1.14E+0   941
    1930  5179.94  1.57E-2  1.56E-1  2.61E+0  1937
    1935  5166.55  2.59E-2  1.56E-1  2.13E+0  4381
    1940  5153.23  3.98E-2  7.64E-2  7.22E-1  1581
    1945  5139.99  1.94E-2  9.98E-2  1.50E+0  1824
    1950  5126.81  2.33E-2  9.26E-2  1.22E+0  3380
    1955  5113.70  2.81E-2  5.37E-2  4.78E-1  3421
    1960  5100.65  2.05E-2  6.49E-2  8.46E-1  2482
    1965  5087.67  2.10E-2  6.30E-2  7.86E-1  3960
    1970  5074.76  2.85E-2  5.92E-2  4.98E-1 20432
    1975  5061.91  1.93E-2  5.12E-2  6.36E-1 10133
    1980  5049.13  1.68E-2  4.66E-2  6.06E-1  8702
    1985  5036.41  1.51E-2  3.35E-2  3.33E-1 22773
    1990  5023.76  1.33E-2  3.20E-2  3.89E-1 20904
    1995  5011.17  1.15E-2  2.83E-2  3.70E-1 20758
    2000  4998.64  7.50E-3  1.60E-2  1.66E-1 21057
    2005  4986.17  6.80E-3  1.51E-2  1.81E-1 21104
    2010  4973.77  5.40E-3  1.21E-2  1.44E-1 20897
    2015  4961.43  4.10E-3  8.60E-3  8.18E-2 21054
    2020  4949.15  4.00E-3  8.70E-3  9.74E-2 20788
    2025  4936.93  3.40E-3  7.30E-3  7.89E-2 20974
    2030  4924.77  5.30E-3  7.80E-3  2.59E-2 21210
    2035  4912.67  3.30E-3  6.90E-3  6.90E-2 20964
    2040  4900.62  3.00E-3  6.40E-3  6.41E-2 20885
    2045  4888.64  4.90E-3  1.00E-2  8.74E-2 20584
    2050  4876.72  5.20E-3  1.06E-2  9.27E-2 20531
    2055  4864.85  1.26E-2  2.59E-2  2.03E-1 21285
    2060  4853.05  1.28E-2  2.57E-2  1.92E-1 21262
    2065  4841.30  3.09E-2  6.42E-2  3.93E-1 18369
    2070  4829.60  3.34E-2  7.20E-2  4.43E-1 16082
    2075  4817.96  4.97E-2  1.21E-1  6.30E-1  7882
    2080  4806.38  6.99E-2  2.15E-1  9.47E-1  3138
    2085  4794.86  8.05E-2  2.15E-1  8.82E-1  4274
    2090  4783.38  1.20E-1  3.84E-1  1.30E+0  2392
    2095  4771.97  1.35E-1  3.86E-1  1.23E+0  2918
    2100  4760.61  2.28E-1  6.68E-1  1.74E+0  2470
    2105  4749.30  2.82E-1  7.55E-1  1.81E+0  2335
    2110  4738.04  4.13E-1  1.13E+0  2.33E+0  2405
    2115  4726.84  8.25E-1  2.32E+0  3.97E+0  1867
    2120  4715.70  8.80E-1  1.87E+0  2.93E+0  3178
    2125  4704.60  1.28E+0  2.76E+0  3.90E+0  2159
    2130  4693.56  1.61E+0  2.89E+0  3.65E+0  3263
    2135  4682.56  2.42E+0  3.80E+0  4.16E+0  4675
    2140  4671.62  5.08E+0  7.19E+0  7.00E+0  2949
    2145  4660.73  4.11E+0  4.89E+0  4.50E+0  5627
    2150  4649.90  5.39E+0  5.46E+0  4.66E+0  4352
    2155  4639.11  5.99E+0  5.56E+0  4.36E+0  4888
    2160  4628.37  7.83E+0  5.52E+0  4.03E+0  7843
    2165  4617.68  1.74E+1  8.87E+0  6.20E+0  4788
    2170  4607.04  7.73E+0  4.58E+0  3.27E+0  7205
    2175  4596.45  4.91E+0  2.98E+0  2.26E+0  6515
    2180  4585.91  7.34E+0  3.57E+0  3.17E+0  3343
    2185  4575.41  2.13E+0  1.52E+0  2.12E+0  1241
    2190  4564.97  1.23E+0  1.61E+0  3.10E+0   488
    2195  4554.57  1.67E+1  1.51E+1  2.05E+1   860
    2200  4544.22  3.27E+1  2.65E+1  2.62E+1  2146
    2205  4533.91  5.34E+0  3.23E+0  3.65E+0  3269
    2210  4523.65  1.57E+0  9.90E-1  1.60E+0  1212
    2215  4513.44  2.44E+0  1.47E+0  2.08E+0  1721
    2220  4503.28  9.73E+0  4.10E+0  3.61E+0  2147
    2225  4493.16  6.94E+0  3.51E+0  3.61E+0  1570
    2230  4483.08  6.60E+0  3.65E+0  5.04E+0  1286
    2235  4473.05  1.89E+1  8.50E+0  8.71E+0  1597
    2240  4463.07  1.58E+1  9.24E+0  8.56E+0  1764
    2245  4453.13  8.35E+0  6.27E+0  6.28E+0  1784
    2250  4443.23  1.05E+1  9.47E+0  1.06E+1  1498
    2255  4433.38  1.00E+1  1.04E+1  1.47E+1  1063
    2260  4423.57  3.74E+0  5.61E+0  9.51E+0  1445
    2265  4413.81  4.77E+0  7.06E+0  9.01E+0  1120
    2270  4404.08  5.48E+0  9.64E+0  1.32E+1   910
    2275  4394.41  2.98E+0  6.64E+0  1.44E+1   831
    2280  4384.77  2.59E+0  4.87E+0  1.05E+1   665
    2285  4375.17  1.95E+0  3.98E+0  7.55E+0   515
    2290  4365.62  1.51E+0  3.60E+0  7.75E+0   587
    2295  4356.11  5.49E-1  3.37E+0  1.32E+1   734
    2300  4346.64  3.04E-1  2.74E+0  1.40E+1   787
    2305  4337.21  3.88E-1  2.08E+0  9.01E+0   697
    2310  4327.82  1.13E+0  3.21E+0  8.74E+0   361
    2315  4318.48  4.55E+0  7.68E+0  1.47E+1   367
    2320  4309.17  2.25E+0  7.96E+0  2.41E+1   722
    2325  4299.90  2.61E-1  3.33E+0  2.13E+1  1423
    2330  4290.68  3.28E-1  2.09E+0  1.03E+1  1747
    2335  4281.49  3.88E+0  2.12E+0  4.42E+0   952
    2340  4272.34  3.63E+0  1.12E+1  3.03E+1  1946
    2345  4263.23  2.09E+0  1.23E+1  4.69E+1  1004
    2350  4254.16  4.53E+0  6.69E+0  1.47E+1   853
    2355  4245.13  5.32E+0  3.76E+0  7.59E+0  1034
    2360  4236.13  7.03E+0  2.04E+1  4.68E+1  2905
    2365  4227.18  4.60E+0  2.62E+1  8.30E+1   849
    2370  4218.26  2.53E+0  1.12E+1  3.12E+1   921
    2375  4209.38  1.59E+0  3.36E+0  8.97E+0   438
    2380  4200.54  1.54E+0  5.13E+0  1.50E+1   572
    2385  4191.73  3.49E+0  2.32E+1  6.50E+1   946
    2390  4182.96  2.89E+0  2.24E+1  6.31E+1  1177
    2395  4174.23  7.28E-1  5.05E+0  1.96E+1   651
    2400  4165.53  5.50E-1  6.50E+0  3.12E+1   753
    2405  4156.87  5.16E+0  3.79E+1  1.23E+2  1527
    2410  4148.25  7.04E+0  4.94E+1  1.39E+2   968
    2415  4139.66  1.43E+0  1.17E+1  4.44E+1   639
    2420  4131.10  8.52E-1  9.14E+0  3.92E+1   762
    2425  4122.59  9.54E+0  4.35E+1  1.11E+2  1620
    2430  4114.10  2.05E+1  8.91E+1  1.82E+2  1426
    2435  4105.66  7.31E+0  3.20E+1  8.21E+1   847
    2440  4097.24  3.39E+0  2.25E+1  7.10E+1   694
    2445  4088.86  5.05E+0  3.18E+1  9.26E+1   898
    2450  4080.52  2.34E+1  7.41E+1  1.49E+2  1312
    2455  4072.21  3.00E+1  9.82E+1  1.83E+2   939
    2460  4063.93  7.32E+0  3.99E+1  1.06E+2   555
    2465  4055.69  6.48E+0  4.17E+1  1.13E+2   552
    2470  4047.48  4.34E+1  1.21E+2  2.14E+2   850
    2475  4039.30  9.14E+1  2.49E+2  3.85E+2   906
    2480  4031.16  2.79E+1  1.10E+2  2.14E+2   697
    2485  4023.05  8.29E+0  3.88E+1  9.43E+1   615
    2490  4014.97  4.64E+1  9.51E+1  1.78E+2   829
    2495  4006.92  8.46E+1  1.88E+2  2.79E+2   537
    2500  3998.91  4.00E+1  1.17E+2  1.86E+2   468
    2505  3990.93  2.32E+1  7.61E+1  1.44E+2   606
    2510  3982.98  1.28E+2  1.92E+2  2.76E+2   867
    2515  3975.06  2.14E+2  3.30E+2  4.65E+2   649
    2520  3967.17  4.43E+1  8.67E+1  1.57E+2   455
    2525  3959.32  9.22E+1  1.62E+2  2.40E+2   460
    2530  3951.49  1.43E+2  2.37E+2  3.17E+2   476
    2535  3943.70  1.29E+2  1.97E+2  2.72E+2   482
    2540  3935.93  1.63E+2  2.28E+2  2.96E+2   555
    2545  3928.20  3.01E+2  3.19E+2  3.57E+2   652
    2550  3920.50  2.78E+2  3.75E+2  4.51E+2   489
    2555  3912.83  2.90E+2  3.67E+2  4.41E+2   515
    2560  3905.18  6.38E+2  5.87E+2  5.98E+2   578
    2565  3897.57  4.56E+2  5.14E+2  6.02E+2   460
    2570  3889.99  3.68E+2  4.26E+2  4.99E+2   475
    2575  3882.44  3.34E+2  3.92E+2  4.51E+2   371
    2580  3874.91  4.74E+2  4.89E+2  5.11E+2   263
    2585  3867.42  5.11E+2  4.61E+2  4.71E+2   279
    2590  3859.95  1.93E+2  2.50E+2  3.70E+2   280
    2595  3852.51  1.84E+2  3.46E+2  6.14E+2   244
    2600  3845.10  8.31E+2  1.20E+3  1.42E+3   253
    2605  3837.72  1.29E+3  9.04E+2  7.28E+2   360
    2610  3830.37  8.68E+2  4.38E+2  3.15E+2   639
    2615  3823.05  9.47E+2  4.34E+2  3.48E+2   754
    2620  3815.75  6.33E+2  3.77E+2  3.67E+2   563
    2625  3808.49  5.02E+2  3.58E+2  3.56E+2   486
    2630  3801.24  7.29E+2  6.34E+2  6.51E+2   377
    2635  3794.03  7.82E+2  8.10E+2  9.02E+2   288
    2640  3786.85  3.55E+2  5.19E+2  8.08E+2   209
    2645  3779.69  2.92E+2  4.21E+2  7.31E+2   216
    2650  3772.56  6.01E+2  5.46E+2  7.38E+2   322
    2655  3765.45  8.30E+2  6.45E+2  7.24E+2   376
    2660  3758.37  5.78E+2  4.72E+2  4.78E+2   390
    2665  3751.32  3.30E+2  4.86E+2  6.21E+2   378
    2670  3744.30  3.83E+2  6.68E+2  9.30E+2   335
    2675  3737.30  6.54E+2  7.34E+2  8.04E+2   332
    2680  3730.33  4.24E+2  8.99E+2  1.26E+3   276
    2685  3723.38  1.41E+2  3.93E+2  7.70E+2   280
    2690  3716.46  2.93E+2  4.25E+2  6.80E+2   363
    2695  3709.56  4.50E+2  8.61E+2  1.30E+3   357
    2700  3702.69  1.18E+2  4.17E+2  9.07E+2   259
    2705  3695.85  9.43E+1  2.80E+2  6.13E+2   270
    2710  3689.03  2.51E+2  5.38E+2  1.01E+3   354
    2715  3682.24  2.00E+2  4.76E+2  9.00E+2   278
    2720  3675.47  8.06E+1  2.80E+2  5.91E+2   250
    2725  3668.72  1.96E+2  6.17E+2  1.19E+3   303
    2730  3662.00  2.42E+2  6.31E+2  1.06E+3   262
    2735  3655.31  1.34E+2  4.25E+2  7.29E+2   286
    2740  3648.64  4.36E+2  9.97E+2  1.53E+3   405
    2745  3641.99  6.41E+2  1.22E+3  1.71E+3   315
    2750  3635.37  2.91E+2  6.88E+2  1.13E+3   264
    2755  3628.77  6.03E+2  1.08E+3  1.68E+3   292
    2760  3622.20  7.88E+2  1.16E+3  1.73E+3   250
    2765  3615.65  3.89E+2  6.42E+2  1.28E+3   196
    2770  3609.12  8.76E+2  1.27E+3  2.45E+3   199
    2775  3602.62  8.30E+2  1.47E+3  2.64E+3   185
    2780  3596.14  4.61E+2  1.00E+3  1.91E+3   155
    2785  3589.69  1.01E+3  1.89E+3  2.92E+3   177
    2790  3583.25  2.02E+3  3.18E+3  3.99E+3   225
    2795  3576.84  1.98E+3  2.80E+3  3.18E+3   212
    2800  3570.45  2.00E+3  2.11E+3  2.40E+3   232
    2805  3564.09  2.73E+3  2.16E+3  2.37E+3   330
    2810  3557.75  3.78E+3  2.97E+3  3.26E+3   363
    2815  3551.43  1.04E+4  7.75E+3  7.88E+3   716
    2820  3545.13  1.61E+4  1.37E+4  1.45E+4   751
    2825  3538.86  1.96E+4  1.83E+4  2.03E+4   675
    2830  3532.61  9.82E+3  7.40E+3  8.73E+3   458
    2835  3526.38  1.61E+3  1.76E+3  2.84E+3   228
    2840  3520.17  5.98E+2  8.07E+2  2.03E+3   165
    2845  3513.98  1.37E+3  1.19E+3  2.24E+3   206
    2850  3507.82  3.32E+3  1.75E+3  2.23E+3   246
    2855  3501.67  3.55E+3  2.05E+3  2.87E+3   247
    2860  3495.55  4.26E+3  3.18E+3  4.32E+3   282
    2865  3489.45  4.90E+3  4.48E+3  5.94E+3   253
    2870  3483.37  3.23E+3  4.55E+3  6.12E+3   207
    2875  3477.31  2.27E+3  3.78E+3  7.22E+3   176
    2880  3471.28  2.23E+3  3.04E+3  5.74E+3   160
    2885  3465.26  1.71E+3  2.60E+3  5.15E+3   143
    2890  3459.26  1.01E+3  1.52E+3  3.70E+3   152
    2895  3453.29  8.88E+2  1.85E+3  4.37E+3   162
    2900  3447.34  2.98E+3  5.64E+3  1.07E+4   271
    2905  3441.40  2.53E+3  5.15E+3  1.00E+4   233
    2910  3435.49  1.32E+3  3.34E+3  6.99E+3   183
    2915  3429.60  2.31E+3  4.11E+3  7.51E+3   165
    2920  3423.72  2.30E+3  6.05E+3  1.15E+4   200
    2925  3417.87  1.30E+3  4.52E+3  9.50E+3   201
    2930  3412.04  1.67E+3  4.88E+3  9.52E+3   207
    2935  3406.23  3.50E+3  7.86E+3  1.31E+4   247
    2940  3400.43  4.15E+3  1.00E+4  1.59E+4   277
    2945  3394.66  3.99E+3  8.71E+3  1.34E+4   236
    2950  3388.91  1.05E+4  1.77E+4  2.43E+4   343
    2955  3383.17  1.58E+4  2.37E+4  3.15E+4   438
    2960  3377.46  1.62E+4  2.03E+4  2.66E+4   462
    2965  3371.76  2.15E+4  2.41E+4  2.85E+4   519
    2970  3366.09  2.98E+4  2.65E+4  2.97E+4   586
    2975  3360.43  3.28E+4  2.46E+4  2.56E+4   597
    2980  3354.79  4.92E+4  3.13E+4  3.01E+4   679
    2985  3349.17  5.54E+4  3.01E+4  2.68E+4   734
    2990  3343.57  5.07E+4  2.44E+4  2.35E+4   734
    2995  3337.99  4.59E+4  2.14E+4  2.89E+4   835
    3000  3332.42  9.51E+3  6.75E+3  2.48E+4   190
    3005  3326.88  5.19E+3  5.48E+3  3.28E+4    71
    3010  3321.35  2.09E+4  7.25E+4  5.15E+5   141
    3015  3315.85  5.66E+4  1.66E+5  4.30E+5   117
    3020  3310.36  2.49E+4  1.36E+4  1.41E+4    64
    3025  3304.88  5.18E+4  2.35E+4  1.75E+4   378
    3030  3299.43  1.15E+5  3.95E+4  3.17E+4  1543
    3035  3293.99  9.71E+4  3.11E+4  2.49E+4  1497
    3040  3288.58  8.95E+4  2.97E+4  2.40E+4  1374
    3045  3283.18  9.77E+4  3.51E+4  2.76E+4  1263
    3050  3277.79  1.38E+5  4.86E+4  3.50E+4  1418
    3055  3272.43  1.46E+5  5.71E+4  4.22E+4  1214
    3060  3267.08  1.69E+5  7.39E+4  5.35E+4  1231
    3065  3261.75  1.11E+5  5.64E+4  4.21E+4   797
    3070  3256.44  6.94E+4  5.33E+4  4.42E+4   509
    3075  3251.15  3.98E+4  3.81E+4  3.84E+4   438
    3080  3245.87  3.45E+4  3.87E+4  4.42E+4   539
    3085  3240.61  2.78E+4  3.51E+4  4.46E+4   513
    3090  3235.36  2.04E+4  2.98E+4  4.34E+4   508
    3095  3230.14  1.37E+4  2.19E+4  3.41E+4   570
    3100  3224.93  4.92E+3  9.92E+3  1.63E+4   286
    3105  3219.73  5.10E+3  1.30E+4  2.43E+4   561
    3110  3214.56  4.42E+3  1.26E+4  2.45E+4   496
    3115  3209.40  1.38E+3  5.26E+3  1.16E+4   319
    3120  3204.25  8.68E+2  4.19E+3  1.07E+4   312
    3125  3199.13  5.54E+2  3.21E+3  9.73E+3   312
    3130  3194.02  3.36E+2  2.07E+3  6.32E+3   294
    3135  3188.92  3.33E+2  1.94E+3  6.25E+3   241
    3140  3183.84  2.17E+2  1.17E+3  4.01E+3   258
    3145  3178.78  1.35E+2  1.05E+3  4.03E+3   222
    3150  3173.74  1.52E+2  7.96E+2  2.84E+3   280
    3155  3168.71  1.34E+2  6.61E+2  2.55E+3   331
    3160  3163.69  7.66E+1  3.74E+2  1.95E+3   489
    3165  3158.70  6.19E+1  2.83E+2  1.41E+3   567
    3170  3153.71  4.21E+1  2.83E+2  1.40E+3   435
    3175  3148.75  3.09E+1  1.81E+2  7.94E+2   487
    3180  3143.80  3.44E+1  1.64E+2  7.16E+2   481
    3185  3138.86  2.30E+1  7.97E+1  4.19E+2   838
    3190  3133.94  1.17E+1  5.35E+1  3.26E+2   651
    3195  3129.04  1.60E+1  9.06E+1  4.66E+2   460
    3200  3124.15  1.15E+1  4.37E+1  2.33E+2   707
    3205  3119.27  5.52E+0  2.99E+1  1.79E+2   583
    3210  3114.42  6.50E+0  3.21E+1  1.33E+2   778
    3215  3109.57  4.09E+0  1.79E+1  8.18E+1   945
    3220  3104.74  3.27E+0  1.88E+1  1.05E+2   659
    3225  3099.93  3.34E+0  1.47E+1  5.88E+1  1111
    3230  3095.13  3.01E+0  1.17E+1  4.33E+1   962
    3235  3090.35  2.15E+0  1.22E+1  5.02E+1   666
    3240  3085.58  2.09E+0  6.79E+0  2.44E+1  1008
    3245  3080.82  1.30E+0  5.81E+0  2.32E+1   772
    3250  3076.08  8.33E-1  6.27E+0  2.58E+1   652
    3255  3071.36  8.39E-1  4.01E+0  1.48E+1   766
    3260  3066.65  5.14E-1  2.90E+0  1.27E+1   572
    3265  3061.95  3.40E-1  2.97E+0  1.47E+1   446
    3270  3057.27  3.46E-1  2.59E+0  1.27E+1   481
    3275  3052.60  3.92E-1  2.05E+0  9.85E+0   491
    3280  3047.95  4.45E-1  1.87E+0  8.50E+0   454
    3285  3043.31  4.32E-1  1.77E+0  8.17E+0   447
    3290  3038.68  5.60E-1  1.69E+0  7.10E+0   541
    3295  3034.07  8.16E-1  1.58E+0  5.83E+0   567
    3300  3029.48  7.15E-1  1.49E+0  5.78E+0   516
    3305  3024.89  8.97E-1  1.47E+0  5.07E+0   602
    3310  3020.32  9.67E-1  1.43E+0  4.66E+0   610
    3315  3015.77  1.11E+0  1.42E+0  4.18E+0   681
    3320  3011.23  1.45E+0  1.42E+0  3.63E+0   713
    3325  3006.70  1.33E+0  1.36E+0  3.68E+0   651
    3330  3002.18  1.54E+0  1.34E+0  3.19E+0   684
    3335  2997.68  2.12E+0  1.56E+0  2.92E+0   562
    3340  2993.20  2.19E+0  1.60E+0  3.00E+0   509
    3345  2988.72  1.75E+0  1.36E+0  2.83E+0   580
    3350  2984.26  1.60E+0  1.20E+0  2.43E+0   707
    3355  2979.81  1.69E+0  1.16E+0  2.14E+0   769
    3360  2975.38  1.72E+0  1.13E+0  1.96E+0   789
    3365  2970.96  1.67E+0  1.13E+0  1.98E+0   743
    3370  2966.55  1.81E+0  1.22E+0  1.98E+0   688
    3375  2962.16  1.69E+0  1.20E+0  1.79E+0   674
    3380  2957.77  1.42E+0  1.13E+0  1.77E+0   588
    3385  2953.40  1.19E+0  1.02E+0  1.65E+0   638
    3390  2949.05  9.90E-1  9.55E-1  1.57E+0   659
    3395  2944.70  8.75E-1  9.07E-1  1.51E+0   669
    3400  2940.37  7.70E-1  8.48E-1  1.49E+0   665
    3405  2936.06  6.87E-1  7.80E-1  1.42E+0   728
    3410  2931.75  6.68E-1  7.81E-1  1.38E+0   708
    3415  2927.46  6.39E-1  7.50E-1  1.28E+0   784
    3420  2923.18  7.02E-1  7.95E-1  1.25E+0   859
    3425  2918.91  7.27E-1  7.96E-1  1.21E+0   890
    3430  2914.66  8.18E-1  8.59E-1  1.20E+0   951
    3435  2910.41  9.22E-1  9.67E-1  1.27E+0   963
    3440  2906.18  9.45E-1  9.33E-1  1.16E+0  1020
    3445  2901.97  1.11E+0  1.07E+0  1.19E+0   996
    3450  2897.76  1.06E+0  9.77E-1  1.08E+0  1200
    3455  2893.57  1.27E+0  1.12E+0  1.14E+0  1197
    3460  2889.39  1.05E+0  9.24E-1  1.00E+0  1455
    3465  2885.22  1.05E+0  8.84E-1  9.52E-1  1303
    3470  2881.06  9.86E-1  8.40E-1  9.36E-1  1450
    3475  2876.91  6.65E-1  6.27E-1  8.48E-1  1755
    3480  2872.78  8.79E-1  8.02E-1  9.64E-1  1338
    3485  2868.66  5.26E-1  5.94E-1  8.48E-1  1035
    3490  2864.55  6.39E-1  8.73E-1  1.34E+0   475
    3495  2860.45  2.99E+0  3.18E+0  3.70E+0   467
    3500  2856.36  3.03E+0  3.12E+0  3.40E+0  1277
    3505  2852.29  3.27E-1  3.59E-1  6.39E-1  1703
    3510  2848.23  4.74E-1  4.69E-1  6.32E-1  2196
    3515  2844.17  3.93E-1  4.20E-1  6.36E-1  2581
    3520  2840.13  4.91E-1  5.43E-1  9.50E-1  1951
    3525  2836.11  1.32E+0  1.07E+0  1.28E+0  1371
    3530  2832.09  1.36E+0  1.15E+0  1.28E+0  1547
    3535  2828.08  9.64E-1  9.10E-1  1.06E+0  1776
    3540  2824.09  1.34E+0  1.20E+0  1.19E+0  1225
    3545  2820.11  1.43E+0  1.46E+0  1.78E+0   770
    3550  2816.13  1.05E+0  1.29E+0  1.83E+0   653
    3555  2812.17  8.18E-1  1.18E+0  1.78E+0   611
    3560  2808.22  5.99E-1  9.55E-1  1.59E+0   583
    3565  2804.28  4.29E-1  6.96E-1  1.29E+0   481
    3570  2800.36  2.91E-1  5.47E-1  1.18E+0   474
    3575  2796.44  1.73E-1  5.29E-1  1.50E+0   440
    3580  2792.53  1.28E-1  4.99E-1  1.71E+0   442
    3585  2788.64  1.10E-1  3.34E-1  1.27E+0   547
    3590  2784.76  9.04E-2  2.61E-1  1.11E+0   471
    3595  2780.88  1.00E-1  2.19E-1  8.02E-1   673
    3600  2777.02  1.31E-1  3.12E-1  1.02E+0   978
    3605  2773.17  1.39E-1  4.49E-1  1.62E+0   703
    3610  2769.33  1.55E-1  6.41E-1  2.41E+0   996
    3615  2765.50  2.52E-1  6.67E-1  1.96E+0  1018
    3620  2761.68  2.26E-1  3.19E-1  7.53E-1   746
    3625  2757.87  1.18E-1  2.68E-1  1.03E+0   922
    3630  2754.07  1.94E-1  8.68E-1  3.14E+0   977
    3635  2750.28  2.52E-1  1.20E+0  3.86E+0   819
    3640  2746.50  1.78E-1  5.69E-1  1.94E+0  1181
    3645  2742.74  1.13E-1  2.19E-1  8.19E-1   525
    3650  2738.98  1.94E-1  5.85E-1  2.07E+0  1535
    3655  2735.23  3.54E-1  1.79E+0  5.47E+0   875
    3660  2731.50  4.88E-1  2.35E+0  6.55E+0   636
    3665  2727.77  3.30E-1  1.16E+0  3.38E+0   891
    3670  2724.05  2.37E-1  5.06E-1  1.53E+0   360
    3675  2720.35  3.32E-1  1.31E+0  4.15E+0   948
    3680  2716.65  2.37E-1  1.13E+0  4.07E+0  1132
    3685  2712.96  5.60E-1  1.77E+0  4.43E+0  1122
    3690  2709.29  5.54E-1  2.00E+0  5.06E+0   806
    3695  2705.62  2.63E-1  1.45E+0  5.25E+0   995
    3700  2701.97  3.18E-1  1.81E+0  6.26E+0  1027
    3705  2698.32  2.62E-1  1.04E+0  3.56E+0   592
